#
# Telescope:          Arecibo Radio Telescope
# Receiver:           L-band Wide (LBW)
# Source Name:        A161941.4+131458
# AGC Number:         0
# RA:                 244.92250 (J2000) decimal degrees
# DEC:                 13.24944 (J2000) decimal degrees
# Rest Frequency:     1420.4058 [MHz]
# Channels:           2048
# Bandwidth:          24 MHz
#
# Mean value of continuum emission:-30.4040
# Baseline fit order: 2
# Parameters for baseline polynomial fit (A+Bx+Cx^2+...):
#   Order   Value [mJy / (km/s)^n]:
#     0          -31.9131
#     1       0.000989701
#     2      -6.82861E-08
#
# Smoothing method:          3-channel Hanning
# RMS for smoothed baseline: 1.17492 mJy
#
# ************** FIT PARAMETERS **************
# Fit Type:                Two-Horned (P)
# User Fit Boundaries:     
#      Lower Left Channel:           902
#      Upper Left Channel:           959
#      Lower Right Channel:          795
#      Upper Right Channel:          877
# Integrated Flux Density:     0.949 +/-  0.072 Jy km/s
# Systemic Velocity:        9388.38  +/- 15.79     km/s
# Velocity Width (W50):      244.64  +/- 22.33     km/s
# Velocity Width (W20):      319.12  +/- 22.33     km/s
#
# Comments:
# Right side of fit very sensitive to boundaries selected.
#
# Table FORMAT:   (I4,1x,F8.1,1x,F12.6,1x,F10.4,1x,F10.4,1x,F10.4,1x,F10.4)
#
# Column descriptions:
# 1. Channel number
# 2. Heliocentric Velocity (Optical Convention) [km/s]
# 3. Radio frequency [MHz]
# 4. Flux density of raw spectrum [mJy]
# 5. Fitted baseline [mJy]
# 6. Baseline-subtracted smoothed spectrum [mJy]
#
#######################################################

   0  11822.2  1366.586640   -28.4975   -29.7567     0.7231
   1  11819.4  1366.598847   -30.6401   -29.7549    -1.1805
   2  11816.6  1366.611054   -33.9639   -29.7532    -2.0895
   3  11813.8  1366.623261   -28.8028   -29.7514     0.3116
   4  11811.1  1366.635469   -26.1901   -29.7497     1.5339
   5  11808.3  1366.647676   -31.6805   -29.7480     0.8774
   6  11805.5  1366.659883   -25.9312   -29.7462     0.5793
   7  11802.7  1366.672090   -33.1247   -29.7445    -0.7640
   8  11799.9  1366.684297   -29.8533   -29.7428    -0.4819
   9  11797.1  1366.696504   -28.0674   -29.7410     1.4557
  10  11794.4  1366.708711   -27.1533   -29.7393     1.7248
  11  11791.6  1366.720918   -29.6844   -29.7376     0.5380
  12  11788.8  1366.733125   -30.2763   -29.7359    -0.3016
  13  11786.0  1366.745332   -29.9129   -29.7341    -0.8270
  14  11783.2  1366.757539   -32.1424   -29.7324    -1.8401
  15  11780.4  1366.769746   -32.0926   -29.7307    -1.8560
  16  11777.7  1366.781953   -30.0193   -29.7290    -1.4805
  17  11774.9  1366.794160   -32.7069   -29.7272    -1.4553
  18  11772.1  1366.806367   -29.2969   -29.7255    -0.4594
  19  11769.3  1366.818574   -29.4388   -29.7238     0.4688
  20  11766.5  1366.830781   -28.8454   -29.7221     0.6133
  21  11763.7  1366.842988   -29.3055   -29.7204     0.3772
  22  11761.0  1366.855195   -29.9164   -29.7187    -0.7693
  23  11758.2  1366.867402   -32.8137   -29.7169    -1.0984
  24  11755.4  1366.879609   -27.7174   -29.7152     0.2984
  25  11752.6  1366.891816   -29.4189   -29.7135     1.2266
  26  11749.8  1366.904023   -27.3923   -29.7118     1.2634
  27  11747.1  1366.916230   -29.5902   -29.7101     0.0645
  28  11744.3  1366.928437   -32.0096   -29.7084    -1.2037
  29  11741.5  1366.940644   -30.0388   -29.7067    -0.5056
  30  11738.7  1366.952851   -28.7616   -29.7050     1.3838
  31  11735.9  1366.965058   -25.7227   -29.7033     2.2585
  32  11733.1  1366.977265   -29.5722   -29.7016     0.3994
  33  11730.4  1366.989472   -32.3416   -29.6998    -1.5128
  34  11727.6  1367.001679   -30.5953   -29.6981    -1.1522
  35  11724.8  1367.013886   -29.8694   -29.6964    -0.7506
  36  11722.0  1367.026094   -31.4541   -29.6947    -1.4974
  37  11719.2  1367.038301   -31.9910   -29.6930    -2.1694
  38  11716.4  1367.050508   -32.0140   -29.6913    -2.4024
  39  11713.7  1367.062715   -32.3562   -29.6896    -1.3414
  40  11710.9  1367.074922   -27.3980   -29.6879     0.3649
  41  11708.1  1367.087129   -30.1397   -29.6863     0.2746
  42  11705.3  1367.099336   -29.9692   -29.6846    -0.6845
  43  11702.5  1367.111543   -31.3979   -29.6829    -1.6450
  44  11699.8  1367.123750   -32.5465   -29.6812    -1.4920
  45  11697.0  1367.135957   -28.2018   -29.6795     0.8409
  46  11694.2  1367.148164   -26.4040   -29.6778     1.7637
  47  11691.4  1367.160371   -30.6465   -29.6761     0.6153
  48  11688.6  1367.172578   -28.5463   -29.6744     0.5841
  49  11685.9  1367.184785   -28.6223   -29.6727     0.9724
  50  11683.1  1367.196992   -29.0103   -29.6710     0.9271
  51  11680.3  1367.209199   -28.3327   -29.6694     0.6301
  52  11677.5  1367.221406   -30.4812   -29.6677    -0.2271
  53  11674.7  1367.233613   -30.2839   -29.6660    -0.5139
  54  11672.0  1367.245820   -29.6705   -29.6643     0.0309
  55  11669.2  1367.258027   -28.9087   -29.6626     0.9472
  56  11666.4  1367.270234   -27.3738   -29.6610     1.1066
  57  11663.6  1367.282441   -30.5612   -29.6593    -0.0134
  58  11660.8  1367.294648   -30.1945   -29.6576    -0.8079
  59  11658.0  1367.306855   -30.9120   -29.6559    -0.4103
  60  11655.3  1367.319062   -28.2465   -29.6543     0.1236
  61  11652.5  1367.331269   -30.7175   -29.6526     0.4120
  62  11649.7  1367.343476   -27.2810   -29.6509     1.0907
  63  11646.9  1367.355683   -28.9612   -29.6492     0.6613
  64  11644.1  1367.367890   -30.7484   -29.6476    -1.0537
  65  11641.4  1367.380097   -32.3470   -29.6459    -1.0323
  66  11638.6  1367.392304   -27.2705   -29.6442     0.7213
  67  11635.8  1367.404511   -28.8039   -29.6426     1.1326
  68  11633.0  1367.416719   -29.1616   -29.6409     0.4222
  69  11630.2  1367.428926   -29.7478   -29.6392     0.5422
  70  11627.5  1367.441133   -27.7308   -29.6376     1.9773
  71  11624.7  1367.453340   -25.4317   -29.6359     2.3410
  72  11621.9  1367.465547   -30.5853   -29.6342     0.0939
  73  11619.1  1367.477754   -31.5591   -29.6326    -1.5832
  74  11616.3  1367.489961   -31.1595   -29.6309    -0.7649
  75  11613.6  1367.502168   -27.7050   -29.6293     0.1580
  76  11610.8  1367.514375   -31.3153   -29.6276    -0.0506
  77  11608.0  1367.526582   -28.3771   -29.6259     0.6512
  78  11605.2  1367.538789   -27.8293   -29.6243     1.9950
  79  11602.4  1367.550996   -26.4814   -29.6226     1.4858
  80  11599.7  1367.563203   -31.7552   -29.6210     0.2371
  81  11596.9  1367.575410   -27.5438   -29.6193     0.3832
  82  11594.1  1367.587617   -30.1015   -29.6177     0.4509
  83  11591.3  1367.599824   -28.9203   -29.6160     0.3874
  84  11588.5  1367.612031   -28.9723   -29.6144     1.7950
  85  11585.8  1367.624238   -24.4125   -29.6127     2.4910
  86  11583.0  1367.636445   -30.6895   -29.6111     0.3368
  87  11580.2  1367.648652   -31.3056   -29.6094    -1.7696
  88  11577.4  1367.660859   -32.2156   -29.6078    -1.9518
  89  11574.7  1367.673066   -30.5017   -29.6062    -0.7943
  90  11571.9  1367.685273   -28.3827   -29.6045     0.5374
  91  11569.1  1367.697480   -29.0016   -29.6029     1.0943
  92  11566.3  1367.709687   -27.6483   -29.6012     1.3821
  93  11563.5  1367.721894   -28.5782   -29.5996     1.0444
  94  11560.8  1367.734101   -29.4163   -29.5980     0.2993
  95  11558.0  1367.746308   -29.7841   -29.5963    -0.0362
  96  11555.2  1367.758515   -29.5457   -29.5947    -0.3705
  97  11552.4  1367.770722   -30.9852   -29.5931    -0.7971
  98  11549.6  1367.782929   -30.0445   -29.5914    -0.4500
  99  11546.9  1367.795136   -29.0915   -29.5898    -0.1226
 100  11544.1  1367.807344   -30.6222   -29.5882    -0.5863
 101  11541.3  1367.819551   -30.3619   -29.5865    -0.1934
 102  11538.5  1367.831758   -27.7739   -29.5849     0.3745
 103  11535.7  1367.843965   -30.9319   -29.5833    -0.4576
 104  11533.0  1367.856172   -30.5258   -29.5816    -0.3947
 105  11530.2  1367.868379   -27.9219   -29.5800     1.0440
 106  11527.4  1367.880586   -27.7745   -29.5784     1.7579
 107  11524.6  1367.892793   -27.8108   -29.5768     0.8014
 108  11521.9  1367.905000   -31.7055   -29.5751    -1.3415
 109  11519.1  1367.917207   -32.4448   -29.5735    -1.2446
 110  11516.3  1367.929414   -26.6776   -29.5719     1.3730
 111  11513.5  1367.941621   -26.9957   -29.5703     2.2346
 112  11510.7  1367.953828   -28.6738   -29.5687     1.3949
 113  11508.0  1367.966035   -28.3515   -29.5670     1.0895
 114  11505.2  1367.978242   -28.5331   -29.5654     0.7327
 115  11502.4  1367.990449   -29.9131   -29.5638     0.3957
 116  11499.6  1368.002656   -28.3132   -29.5622     0.5897
 117  11496.9  1368.014863   -29.3506   -29.5606     0.3796
 118  11494.1  1368.027070   -29.7095   -29.5590    -0.4630
 119  11491.3  1368.039277   -31.3184   -29.5574    -1.3238
 120  11488.5  1368.051484   -31.1785   -29.5558    -0.9529
 121  11485.7  1368.063691   -28.3594   -29.5541    -0.3983
 122  11483.0  1368.075898   -31.9124   -29.5525    -1.5205
 123  11480.2  1368.088105   -32.1081   -29.5509    -1.2138
 124  11477.4  1368.100312   -26.9302   -29.5493    -0.2394
 125  11474.6  1368.112519   -33.1865   -29.5477    -0.7177
 126  11471.9  1368.124726   -27.7583   -29.5461    -0.5698
 127  11469.1  1368.136933   -31.7606   -29.5445    -0.6281
 128  11466.3  1368.149140   -29.4111   -29.5429    -0.0652
 129  11463.5  1368.161347   -27.8499   -29.5413     0.8616
 130  11460.8  1368.173554   -29.6080   -29.5397     0.1266
 131  11458.0  1368.185761   -30.5868   -29.5381    -0.5841
 132  11455.2  1368.197969   -29.7074   -29.5365    -0.4498
 133  11452.4  1368.210176   -29.9438   -29.5349    -0.4777
 134  11449.6  1368.222383   -30.4555   -29.5333     0.2157
 135  11446.9  1368.234590   -26.4157   -29.5317     1.1895
 136  11444.1  1368.246797   -30.0821   -29.5301     0.7461
 137  11441.3  1368.259004   -28.5564   -29.5286     0.0741
 138  11438.5  1368.271211   -30.6231   -29.5270    -0.7539
 139  11435.8  1368.283418   -31.3210   -29.5254    -1.3653
 140  11433.0  1368.295625   -30.2978   -29.5238    -0.4879
 141  11430.2  1368.307832   -28.1301   -29.5222     0.2130
 142  11427.4  1368.320039   -30.6786   -29.5206    -0.0666
 143  11424.7  1368.332246   -28.8614   -29.5190    -0.2912
 144  11421.9  1368.344453   -30.8394   -29.5175    -0.3009
 145  11419.1  1368.356660   -28.7330   -29.5159     0.1494
 146  11416.3  1368.368867   -29.1604   -29.5143     0.8096
 147  11413.5  1368.381074   -27.7650   -29.5127     1.9019
 148  11410.8  1368.393281   -25.7528   -29.5111     3.2736
 149  11408.0  1368.405488   -25.6794   -29.5095     3.1420
 150  11405.2  1368.417695   -28.3585   -29.5080     1.1039
 151  11402.4  1368.429902   -31.2199   -29.5064    -0.8110
 152  11399.7  1368.442109   -30.4712   -29.5048    -0.8492
 153  11396.9  1368.454316   -29.2539   -29.5032     0.0924
 154  11394.1  1368.466523   -28.6647   -29.5017     0.0417
 155  11391.3  1368.478730   -31.2568   -29.5001    -0.4620
 156  11388.6  1368.490937   -28.6699   -29.4985     0.3984
 157  11385.8  1368.503144   -27.8037   -29.4970     0.8669
 158  11383.0  1368.515351   -30.2428   -29.4954     0.4663
 159  11380.2  1368.527558   -27.8270   -29.4938     0.9155
 160  11377.5  1368.539765   -28.4166   -29.4923     1.5281
 161  11374.7  1368.551972   -27.1964   -29.4907     1.1807
 162  11371.9  1368.564179   -30.4306   -29.4891     0.8013
 163  11369.1  1368.576386   -26.6935   -29.4876     1.4260
 164  11366.4  1368.588594   -28.4285   -29.4860     2.6693
 165  11363.6  1368.600801   -23.7165   -29.4844     3.2428
 166  11360.8  1368.613008   -29.1049   -29.4829     1.1277
 167  11358.0  1368.625215   -31.4944   -29.4813    -1.2086
 168  11355.3  1368.637422   -30.6658   -29.4798    -0.4941
 169  11352.5  1368.649629   -27.0695   -29.4782     1.7887
 170  11349.7  1368.661836   -25.9534   -29.4767     2.5390
 171  11346.9  1368.674043   -28.7744   -29.4751     1.2007
 172  11344.2  1368.686250   -29.5953   -29.4735     0.8595
 173  11341.4  1368.698457   -26.4911   -29.4720     1.2798
 174  11338.6  1368.710664   -30.1914   -29.4704     0.4015
 175  11335.8  1368.722871   -29.4020   -29.4689    -0.7530
 176  11333.1  1368.735078   -31.8923   -29.4673    -1.5683
 177  11330.3  1368.747285   -30.9560   -29.4658    -2.2473
 178  11327.5  1368.759492   -33.0482   -29.4642    -1.3397
 179  11324.7  1368.771699   -26.1633   -29.4627     1.1064
 180  11322.0  1368.783906   -28.0504   -29.4612     1.7529
 181  11319.2  1368.796113   -28.5690   -29.4596     1.3664
 182  11316.4  1368.808320   -27.1846   -29.4581     1.1997
 183  11313.6  1368.820527   -30.0952   -29.4565     0.5053
 184  11310.9  1368.832734   -28.4299   -29.4550     0.9447
 185  11308.1  1368.844941   -27.0862   -29.4535     0.8920
 186  11305.3  1368.857148   -31.6436   -29.4519     0.0210
 187  11302.5  1368.869355   -27.3503   -29.4504     0.0578
 188  11299.8  1368.881562   -31.2261   -29.4488    -0.8524
 189  11297.0  1368.893769   -31.4023   -29.4473    -0.9686
 190  11294.2  1368.905976   -27.6328   -29.4458     0.1035
 191  11291.4  1368.918183   -30.7012   -29.4442    -0.1989
 192  11288.7  1368.930390   -29.5373   -29.4427    -0.2986
 193  11285.9  1368.942597   -29.1895   -29.4412    -0.3193
 194  11283.1  1368.954804   -31.1255   -29.4396    -0.8531
 195  11280.3  1368.967011   -29.7304   -29.4381    -1.3308
 196  11277.6  1368.979219   -32.4894   -29.4366    -1.2204
 197  11274.8  1368.991426   -27.9188   -29.4351    -0.4805
 198  11272.0  1369.003633   -31.3355   -29.4335    -0.6455
 199  11269.3  1369.015840   -29.7262   -29.4320    -0.8487
 200  11266.5  1369.028047   -30.3348   -29.4305    -0.5665
 201  11263.7  1369.040254   -29.5921   -29.4290    -0.5149
 202  11260.9  1369.052461   -30.2564   -29.4274    -0.2362
 203  11258.2  1369.064668   -28.5495   -29.4259     0.0040
 204  11255.4  1369.076875   -30.3322   -29.4244     0.3938
 205  11252.6  1369.089082   -26.9083   -29.4229     1.4278
 206  11249.8  1369.101289   -27.8315   -29.4214     1.9620
 207  11247.1  1369.113496   -27.2663   -29.4199     1.6307
 208  11244.3  1369.125703   -28.7926   -29.4183     1.1604
 209  11241.5  1369.137910   -28.1804   -29.4168     0.6206
 210  11238.7  1369.150117   -30.0316   -29.4153    -0.6327
 211  11236.0  1369.162324   -31.9486   -29.4138    -2.1401
 212  11233.2  1369.174531   -32.2868   -29.4123    -1.9111
 213  11230.4  1369.186738   -28.7714   -29.4108    -0.2036
 214  11227.7  1369.198945   -28.6280   -29.4093     0.4646
 215  11224.9  1369.211152   -29.7515   -29.4078    -0.6609
 216  11222.1  1369.223359   -32.1437   -29.4063    -1.8094
 217  11219.3  1369.235566   -30.8238   -29.4048    -1.1222
 218  11216.6  1369.247773   -28.3164   -29.4033    -0.3667
 219  11213.8  1369.259980   -31.6232   -29.4018    -1.3158
 220  11211.0  1369.272187   -31.3076   -29.4003    -1.3677
 221  11208.2  1369.284394   -28.8334   -29.3988    -0.4424
 222  11205.5  1369.296601   -30.3901   -29.3973    -0.5795
 223  11202.7  1369.308808   -30.2934   -29.3958    -0.0225
 224  11199.9  1369.321015   -26.6962   -29.3943     1.4155
 225  11197.2  1369.333222   -28.2294   -29.3928     0.4839
 226  11194.4  1369.345429   -32.4806   -29.3913    -0.8470
 227  11191.6  1369.357636   -27.7624   -29.3898     0.1100
 228  11188.8  1369.369844   -29.1136   -29.3883     0.0714
 229  11186.1  1369.382051   -31.2778   -29.3868    -0.5113
 230  11183.3  1369.394258   -27.9233   -29.3853     0.2383
 231  11180.5  1369.406465   -29.4637   -29.3838     0.9747
 232  11177.8  1369.418672   -26.7856   -29.3823     0.9880
 233  11175.0  1369.430879   -30.5423   -29.3808     0.0422
 234  11172.2  1369.443086   -29.4844   -29.3793    -0.8363
 235  11169.4  1369.455293   -31.3515   -29.3779    -0.8261
 236  11166.7  1369.467500   -28.6286   -29.3764    -0.4100
 237  11163.9  1369.479707   -30.5370   -29.3749    -0.5132
 238  11161.1  1369.491914   -29.8498   -29.3734    -0.5668
 239  11158.3  1369.504121   -29.5241   -29.3719     0.3363
 240  11155.6  1369.516328   -27.2443   -29.3704     1.0480
 241  11152.8  1369.528535   -29.2770   -29.3690     0.0302
 242  11150.0  1369.540742   -31.5568   -29.3675    -1.4599
 243  11147.3  1369.552949   -30.9188   -29.3660    -1.6874
 244  11144.5  1369.565156   -30.8192   -29.3645    -1.5205
 245  11141.7  1369.577363   -30.9827   -29.3631    -2.0775
 246  11138.9  1369.589570   -32.9776   -29.3616    -1.8854
 247  11136.2  1369.601777   -28.0500   -29.3601    -0.5569
 248  11133.4  1369.613984   -30.5904   -29.3586    -0.7722
 249  11130.6  1369.626191   -31.2928   -29.3572    -1.6604
 250  11127.9  1369.638398   -30.8942   -29.3557    -2.2885
 251  11125.1  1369.650605   -33.4957   -29.3542    -2.9870
 252  11122.3  1369.662812   -31.4794   -29.3528    -1.9914
 253  11119.5  1369.675019   -28.9220   -29.3513    -0.6343
 254  11116.8  1369.687226   -30.6188   -29.3498    -1.3940
 255  11114.0  1369.699433   -32.8159   -29.3484    -2.4154
 256  11111.2  1369.711640   -30.8044   -29.3469    -1.2472
 257  11108.5  1369.723847   -27.9519   -29.3454     0.3472
 258  11105.7  1369.736054   -29.2847   -29.3440     1.0173
 259  11102.9  1369.748261   -26.7854   -29.3425     2.4451
 260  11100.2  1369.760469   -24.7343   -29.3411     2.6563
 261  11097.4  1369.772676   -30.4851   -29.3396     1.1834
 262  11094.6  1369.784883   -26.9201   -29.3382     0.3725
 263  11091.8  1369.797090   -31.5374   -29.3367    -1.3522
 264  11089.1  1369.809297   -32.7608   -29.3352    -2.4971
 265  11086.3  1369.821504   -30.2706   -29.3338    -2.4203
 266  11083.5  1369.833711   -33.7143   -29.3323    -2.6341
 267  11080.8  1369.845918   -30.1664   -29.3309    -1.7208
 268  11078.0  1369.858125   -30.1595   -29.3294    -0.5911
 269  11075.2  1369.870332   -29.1965   -29.3280    -0.8451
 270  11072.5  1369.882539   -32.1399   -29.3265    -0.7044
 271  11069.7  1369.894746   -26.6474   -29.3251     0.7604
 272  11066.9  1369.906953   -28.8241   -29.3236     0.7008
 273  11064.1  1369.919160   -30.1957   -29.3222    -0.7216
 274  11061.4  1369.931367   -30.9599   -29.3208    -1.3688
 275  11058.6  1369.943574   -30.6429   -29.3193    -1.1286
 276  11055.8  1369.955781   -29.5460   -29.3179    -0.9146
 277  11053.1  1369.967988   -31.1950   -29.3164    -0.5902
 278  11050.3  1369.980195   -27.6905   -29.3150    -0.0800
 279  11047.5  1369.992402   -31.0040   -29.3136    -0.8638
 280  11044.8  1370.004609   -31.0109   -29.3121    -1.2507
 281  11042.0  1370.016816   -29.2255   -29.3107    -0.0760
 282  11039.2  1370.029023   -28.0846   -29.3093     0.9002
 283  11036.4  1370.041230   -28.2417   -29.3078     1.1934
 284  11033.7  1370.053437   -27.8898   -29.3064     1.4227
 285  11030.9  1370.065644   -27.5133   -29.3050     1.5140
 286  11028.1  1370.077851   -28.2473   -29.3035     0.2235
 287  11025.4  1370.090058   -32.3122   -29.3021    -0.9144
 288  11022.6  1370.102265   -27.9944   -29.3007    -0.3266
 289  11019.8  1370.114472   -30.2081   -29.2992     0.0675
 290  11017.1  1370.126679   -28.5164   -29.2978     0.1552
 291  11014.3  1370.138886   -29.3297   -29.2964    -0.5623
 292  11011.5  1370.151094   -32.2591   -29.2950    -2.1039
 293  11008.8  1370.163301   -31.7477   -29.2935    -2.4713
 294  11006.0  1370.175508   -31.3049   -29.2921    -1.7390
 295  11003.2  1370.187715   -29.7670   -29.2907    -0.9173
 296  11000.4  1370.199922   -29.9930   -29.2893    -0.3569
 297  10997.7  1370.212129   -28.8317   -29.2879    -0.1019
 298  10994.9  1370.224336   -29.9025   -29.2864    -0.0997
 299  10992.1  1370.236543   -28.9079   -29.2850     0.0273
 300  10989.4  1370.248750   -29.3126   -29.2836     0.0527
 301  10986.6  1370.260957   -29.3905   -29.2822    -0.5921
 302  10983.8  1370.273164   -31.4035   -29.2808    -2.0215
 303  10981.1  1370.285371   -33.0116   -29.2794    -2.7109
 304  10978.3  1370.297578   -30.5344   -29.2780    -0.9545
